* Measurement data measured by REW V5,19
* Source: Input device not selected, no input selected, R, volume: no control
* Format: 128k Log Swept Sine, 1 sweep at -12,0 dBFS  With no timing reference
* Dated: 22.09.2021 16:33:52
* REW Settings:
*  C-weighting compensation: On
*  Target level: 75.0 dB
* Note: ; 
* Measurement: AirDots S R
* Smoothing: 1/24 octave
* Frequency Step: 1/48 octave
* Start Frequency: 20.3 Hz
*
* Freq(Hz)	SPL(dB)	Phase(degrees)
20.291	81.123	-102.940
20.586	81.301	-103.556
20.885	81.675	-104.749
21.189	82.050	-106.068
21.497	82.411	-107.456
21.810	82.757	-108.909
22.127	83.093	-110.409
22.449	83.420	-111.930
22.776	83.747	-113.457
23.107	84.079	-114.997
23.443	84.417	-116.554
23.784	84.755	-118.114
24.130	85.087	-119.653
24.481	85.411	-121.160
24.837	85.734	-122.649
25.198	86.060	-124.155
25.565	86.387	-125.706
25.937	86.707	-127.295
26.314	87.013	-128.879
26.697	87.304	-130.395
27.085	87.586	-131.809
27.479	87.876	-133.150
27.879	88.188	-134.513
28.284	88.524	-136.017
28.696	88.868	-137.737
29.113	89.188	-139.643
29.537	89.467	-141.607
29.966	89.715	-143.468
30.402	89.969	-145.149
30.844	90.257	-146.712
31.293	90.578	-148.319
31.748	90.904	-150.102
32.210	91.210	-152.034
32.678	91.493	-153.957
33.154	91.763	-155.731
33.636	92.040	-157.362
34.125	92.333	-159.002
34.621	92.632	-160.767
35.125	92.919	-162.625
35.636	93.189	-164.458
36.154	93.455	-166.246
36.680	93.732	-168.106
37.214	94.004	-170.099
37.755	94.254	-172.091
38.304	94.500	-173.925
38.861	94.780	-175.695
39.427	95.091	-177.668
40.000	95.376	-179.895
40.582	95.613	177.909
41.172	95.842	175.988
41.771	96.112	174.186
42.379	96.403	172.223
42.995	96.662	170.142
43.620	96.882	168.166
44.255	97.098	166.322
44.898	97.335	164.422
45.552	97.586	162.394
46.214	97.839	160.317
46.886	98.097	158.230
47.568	98.363	155.979
48.260	98.602	153.348
48.962	98.762	150.530
49.674	98.856	148.203
50.397	99.003	146.659
51.130	99.264	145.233
51.874	99.545	143.258
52.628	99.750	140.969
53.394	99.904	138.897
54.170	100.089	137.107
54.958	100.338	135.255
55.758	100.603	132.968
56.569	100.801	130.330
57.391	100.920	127.948
58.226	101.048	126.126
59.073	101.254	124.392
59.932	101.499	122.079
60.804	101.661	119.168
61.688	101.691	116.582
62.586	101.742	115.086
63.496	101.994	113.756
64.420	102.304	111.098
65.357	102.406	107.686
66.307	102.355	105.508
67.272	102.473	104.602
68.250	102.795	102.773
69.243	102.987	99.318
70.250	102.895	96.364
71.272	102.829	95.583
72.309	103.115	95.036
73.360	103.456	92.291
74.427	103.489	88.986
75.510	103.469	87.639
76.608	103.752	86.436
77.723	104.006	82.936
78.853	103.897	79.257
80.000	103.744	77.823
81.164	103.906	76.555
82.344	104.044	73.219
83.542	103.872	70.163
84.757	103.741	69.231
85.990	103.891	68.234
87.241	104.026	65.988
88.510	104.044	63.984
89.797	104.134	62.479
91.103	104.281	60.354
92.428	104.329	57.825
93.773	104.311	55.826
95.137	104.340	54.136
96.520	104.379	52.111
97.924	104.363	50.004
99.349	104.342	48.174
100.794	104.376	46.354
102.260	104.417	44.299
103.747	104.432	42.340
105.256	104.449	40.560
106.787	104.463	38.744
108.340	104.453	36.880
109.916	104.425	35.043
111.515	104.396	33.256
113.137	104.373	31.451
114.783	104.345	29.640
116.452	104.315	27.871
118.146	104.283	26.098
119.865	104.237	24.349
121.608	104.187	22.657
123.377	104.142	21.000
125.171	104.095	19.375
126.992	104.045	17.756
128.839	103.976	16.093
130.713	103.889	14.417
132.615	103.807	12.772
134.543	103.738	11.181
136.500	103.678	9.660
138.486	103.616	8.178
140.500	103.546	6.706
142.544	103.472	5.204
144.617	103.395	3.675
146.721	103.322	2.178
148.855	103.262	0.727
151.020	103.220	-0.695
153.217	103.188	-2.089
155.445	103.159	-3.444
157.706	103.116	-4.800
160.000	103.050	-6.168
162.327	102.975	-7.531
164.688	102.897	-8.826
167.084	102.813	-10.035
169.514	102.709	-11.231
171.980	102.579	-12.460
174.481	102.439	-13.727
177.019	102.307	-14.999
179.594	102.192	-16.208
182.206	102.092	-17.336
184.856	101.990	-18.423
187.545	101.881	-19.515
190.273	101.773	-20.641
193.041	101.676	-21.773
195.849	101.587	-22.828
198.697	101.492	-23.792
201.587	101.379	-24.778
204.520	101.259	-25.827
207.494	101.150	-26.872
210.512	101.051	-27.834
213.574	100.944	-28.723
216.681	100.826	-29.619
219.833	100.709	-30.559
223.030	100.603	-31.480
226.274	100.502	-32.320
229.565	100.391	-33.115
232.905	100.271	-33.936
236.292	100.157	-34.804
239.729	100.050	-35.637
243.216	99.935	-36.371
246.754	99.803	-37.094
250.343	99.678	-37.862
253.984	99.581	-38.628
257.678	99.483	-39.320
261.426	99.366	-39.998
265.229	99.244	-40.697
269.087	99.131	-41.348
273.001	99.016	-41.940
276.972	98.894	-42.522
281.000	98.779	-43.101
285.088	98.672	-43.612
289.234	98.566	-44.055
293.441	98.464	-44.533
297.710	98.377	-45.058
302.040	98.300	-45.544
306.433	98.221	-46.064
310.890	98.139	-46.702
315.412	98.052	-47.363
320.000	97.954	-48.013
324.655	97.852	-48.668
329.377	97.749	-49.279
334.168	97.640	-49.852
339.028	97.530	-50.411
343.959	97.424	-50.904
348.962	97.316	-51.361
354.038	97.204	-51.898
359.188	97.093	-52.427
364.412	96.982	-52.888
369.713	96.876	-53.339
375.090	96.772	-53.773
380.546	96.667	-54.194
386.081	96.565	-54.611
391.697	96.468	-55.018
397.395	96.372	-55.432
403.175	96.267	-55.814
409.039	96.154	-56.173
414.989	96.048	-56.529
421.025	95.944	-56.870
427.149	95.841	-57.210
433.362	95.742	-57.532
439.665	95.642	-57.827
446.060	95.540	-58.075
452.548	95.453	-58.364
459.131	95.377	-58.726
465.809	95.281	-59.048
472.584	95.173	-59.342
479.458	95.075	-59.619
486.432	94.995	-59.870
493.507	94.928	-60.091
500.686	94.861	-60.331
507.968	94.788	-60.631
515.357	94.712	-60.940
522.853	94.644	-61.245
530.458	94.594	-61.558
538.174	94.553	-61.867
546.002	94.508	-62.220
553.943	94.461	-62.789
562.001	94.394	-63.761
570.175	94.240	-65.011
578.469	93.963	-65.719
586.883	93.696	-65.329
595.419	93.561	-64.603
604.080	93.511	-64.274
612.866	93.477	-64.347
621.780	93.440	-64.659
630.824	93.397	-65.221
640.000	93.333	-66.118
649.309	93.224	-67.424
658.753	93.020	-69.141
668.335	92.632	-70.886
678.056	92.001	-71.475
687.919	91.258	-69.367
697.925	90.794	-64.762
708.076	90.822	-60.177
718.376	91.098	-57.426
728.825	91.373	-56.290
739.426	91.577	-55.965
750.181	91.716	-55.902
761.093	91.810	-55.841
772.163	91.865	-55.804
783.394	91.896	-55.783
794.789	91.922	-55.740
806.349	91.939	-55.669
818.078	91.939	-55.590
829.977	91.931	-55.489
842.050	91.920	-55.358
854.297	91.913	-55.201
866.724	91.924	-55.025
879.330	91.951	-54.834
892.120	91.984	-54.651
905.097	92.014	-54.485
918.262	92.036	-54.333
931.618	92.046	-54.179
945.169	92.054	-54.029
958.917	92.074	-53.897
972.864	92.107	-53.790
987.015	92.150	-53.700
1001.371	92.198	-53.651
1015.937	92.250	-53.666
1030.714	92.303	-53.710
1045.706	92.358	-53.772
1060.916	92.416	-53.886
1076.347	92.476	-54.048
1092.003	92.536	-54.240
1107.887	92.598	-54.490
1124.001	92.660	-54.803
1140.350	92.717	-55.152
1156.937	92.771	-55.524
1173.765	92.822	-55.919
1190.838	92.868	-56.335
1208.159	92.911	-56.784
1225.732	92.951	-57.264
1243.561	92.987	-57.753
1261.649	93.026	-58.262
1280.000	93.068	-58.777
1298.618	93.108	-59.289
1317.507	93.139	-59.818
1336.670	93.158	-60.340
1356.113	93.167	-60.840
1375.838	93.172	-61.325
1395.850	93.175	-61.813
1416.153	93.178	-62.292
1436.751	93.179	-62.752
1457.649	93.177	-63.197
1478.851	93.174	-63.623
1500.362	93.170	-64.034
1522.185	93.166	-64.432
1544.326	93.163	-64.811
1566.789	93.162	-65.191
1589.578	93.162	-65.568
1612.699	93.164	-65.935
1636.156	93.171	-66.301
1659.955	93.196	-66.666
1684.099	93.245	-67.030
1708.595	93.303	-67.386
1733.447	93.356	-67.741
1758.661	93.397	-68.115
1784.241	93.429	-68.508
1810.193	93.461	-68.916
1836.523	93.496	-69.360
1863.236	93.534	-69.843
1890.338	93.572	-70.366
1917.833	93.612	-70.952
1945.729	93.655	-71.605
1974.030	93.694	-72.319
2002.743	93.727	-73.116
2031.873	93.754	-73.999
2061.428	93.773	-74.967
2091.412	93.780	-76.016
2121.832	93.769	-77.123
2152.695	93.739	-78.262
2184.007	93.689	-79.386
2215.774	93.622	-80.458
2248.003	93.547	-81.454
2280.701	93.473	-82.385
2313.874	93.396	-83.288
2347.530	93.310	-84.166
2381.676	93.207	-84.999
2416.318	93.082	-85.787
2451.464	92.937	-86.510
2487.122	92.785	-87.151
2523.298	92.642	-87.709
2560.000	92.501	-88.208
2597.236	92.346	-88.670
2635.014	92.177	-89.077
2673.341	92.004	-89.419
2712.226	91.834	-89.704
2751.676	91.665	-89.937
2791.700	91.495	-90.108
2832.306	91.323	-90.210
2873.503	91.150	-90.246
2915.299	90.975	-90.221
2957.703	90.797	-90.124
3000.724	90.616	-89.960
3044.370	90.431	-89.740
3088.652	90.238	-89.453
3133.577	90.036	-89.085
3179.156	89.839	-88.640
3225.398	89.651	-88.130
3272.312	89.471	-87.547
3319.909	89.298	-86.897
3368.198	89.136	-86.168
3417.190	88.988	-85.371
3466.894	88.850	-84.515
3517.321	88.706	-83.588
3568.482	88.554	-82.595
3620.387	88.403	-81.557
3673.046	88.254	-80.485
3726.472	88.103	-79.354
3780.675	87.952	-78.146
3835.666	87.810	-76.855
3891.457	87.690	-75.482
3948.060	87.588	-74.017
4005.486	87.491	-72.445
4063.747	87.390	-70.780
4122.855	87.277	-69.060
4182.824	87.148	-67.295
4243.664	87.005	-65.471
4305.390	86.856	-63.572
4368.013	86.705	-61.599
4431.547	86.560	-59.563
4496.005	86.437	-57.452
4561.401	86.349	-55.269
4627.749	86.276	-53.043
4695.061	86.206	-50.760
4763.352	86.144	-48.402
4832.637	86.094	-45.975
4902.929	86.053	-43.501
4974.244	86.030	-40.949
5046.596	86.039	-38.307
5120.000	86.092	-35.624
5194.472	86.190	-32.920
5270.027	86.311	-30.242
5346.682	86.439	-27.643
5424.451	86.572	-25.138
5503.352	86.711	-22.713
5583.399	86.858	-20.326
5664.612	87.001	-17.975
5747.006	87.132	-15.667
5830.598	87.267	-13.395
5915.406	87.424	-11.151
6001.447	87.601	-8.908
6088.740	87.783	-6.636
6177.303	87.960	-4.341
6267.154	88.142	-1.989
6358.312	88.345	0.413
6450.796	88.580	2.819
6544.625	88.852	5.182
6639.818	89.160	7.438
6736.397	89.501	9.512
6834.380	89.874	11.360
6933.789	90.279	12.928
7034.643	90.714	14.135
7136.964	91.169	14.875
7240.773	91.622	15.028
7346.093	92.055	14.516
7452.944	92.443	13.337
7561.350	92.755	11.608
7671.332	92.967	9.633
7782.915	93.078	7.723
7896.120	93.098	6.063
8010.971	93.032	4.782
8127.493	92.861	3.974
8245.711	92.584	3.674
8365.647	92.232	3.912
8487.328	91.842	4.712
8610.779	91.451	6.049
8736.026	91.084	7.882
8863.095	90.753	10.143
8992.011	90.477	12.738
9122.803	90.279	15.523
9255.497	90.171	18.306
9390.121	90.154	20.892
9526.704	90.216	23.098
9665.273	90.339	24.757
9805.857	90.495	25.677
9948.487	90.650	25.608
10093.191	90.754	24.343
10240.000	90.735	21.833
10388.944	90.502	18.363
10540.055	89.969	14.619
10693.363	89.115	11.456
10848.902	87.984	9.581
11006.703	86.659	9.359
11166.799	85.233	10.848
11329.224	83.792	13.896
11494.012	82.395	18.284
11661.195	81.058	23.794
11830.812	79.778	30.184
12002.895	78.565	37.292
12177.480	77.416	45.033
12354.606	76.313	53.318
12534.309	75.253	62.040
12716.624	74.235	71.162
12901.592	73.260	80.726
13089.250	72.344	90.756
13279.637	71.542	101.235
13472.794	70.941	112.062
13668.760	70.610	123.108
13867.577	70.495	134.289
14069.285	70.452	145.662
14273.928	70.369	157.324
14481.547	70.212	169.251
14692.186	69.955	-178.741
14905.889	69.627	-166.858
15122.700	69.316	-154.829
15342.664	69.137	-142.314
15565.829	69.164	-129.293
15792.239	69.411	-116.065
16021.942	69.833	-102.821
16254.986	70.349	-89.561
16491.422	70.942	-76.099
16731.295	71.668	-62.496
16974.656	72.638	-49.414
17221.559	73.978	-37.558
17472.053	75.737	-27.802
17726.189	77.652	-22.326
17984.021	78.774	-22.157
18245.605	77.857	-9.930
18510.994	74.660	57.922
18780.242	69.938	-136.462
19053.408	64.957	153.963
19330.547	61.020	-140.911
19611.715	58.453	25.084
19896.975	56.940	118.134
