* Measurement data measured by REW V5,19
* Source: Input device not selected, no input selected, R, volume: no control
* Format: 256k Log Swept Sine, 1 sweep at -12,0 dBFS  With no timing reference
* Dated: 06.09.2021 14:40:20
* REW Settings:
*  C-weighting compensation: On
*  Target level: 75.0 dB
* Note: ; 
* Measurement: ES6 L
* Smoothing: 1/24 octave
* Frequency Step: 1/48 octave
* Start Frequency: 20.3 Hz
*
* Freq(Hz)	SPL(dB)	Phase(degrees)
20.291	68.981	-82.819
20.586	69.269	-83.959
20.885	69.906	-86.200
21.189	70.624	-88.826
21.497	71.345	-91.911
21.810	72.011	-95.397
22.127	72.595	-98.967
22.449	73.113	-102.192
22.776	73.615	-104.767
23.107	74.162	-106.685
23.443	74.788	-108.195
23.784	75.479	-109.612
24.130	76.194	-111.129
24.481	76.899	-112.749
24.837	77.587	-114.372
25.198	78.268	-115.916
25.565	78.955	-117.388
25.937	79.648	-118.868
26.314	80.335	-120.438
26.697	80.999	-122.128
27.085	81.629	-123.911
27.479	82.228	-125.743
27.879	82.806	-127.600
28.284	83.375	-129.489
28.696	83.934	-131.437
29.113	84.471	-133.461
29.537	84.974	-135.552
29.966	85.446	-137.673
30.402	85.903	-139.775
30.844	86.356	-141.828
31.293	86.808	-143.831
31.748	87.256	-145.815
32.210	87.701	-147.823
32.678	88.145	-149.881
33.154	88.579	-151.985
33.636	88.996	-154.111
34.125	89.397	-156.235
34.621	89.790	-158.342
35.125	90.177	-160.425
35.636	90.552	-162.475
36.154	90.915	-164.484
36.680	91.276	-166.454
37.214	91.643	-168.398
37.755	92.007	-170.335
38.304	92.362	-172.273
38.861	92.712	-174.207
39.427	93.056	-176.121
40.000	93.389	-177.987
40.582	93.711	-179.793
41.172	94.029	178.424
41.771	94.349	176.621
42.379	94.664	174.806
42.995	94.963	173.007
43.620	95.240	171.200
44.255	95.497	169.353
44.898	95.749	167.491
45.552	96.015	165.614
46.214	96.289	163.669
46.886	96.553	161.688
47.568	96.811	159.710
48.260	97.071	157.523
48.962	97.286	155.006
49.674	97.425	152.654
50.397	97.568	150.981
51.130	97.799	149.607
51.874	98.067	147.839
52.628	98.284	145.714
53.394	98.464	143.612
54.170	98.659	141.541
54.958	98.871	139.389
55.758	99.085	137.186
56.569	99.296	134.959
57.391	99.500	132.734
58.226	99.694	130.560
59.073	99.882	128.415
59.932	100.064	126.252
60.804	100.233	124.087
61.688	100.391	121.942
62.586	100.546	119.801
63.496	100.706	117.644
64.420	100.869	115.454
65.357	101.031	113.226
66.307	101.191	110.982
67.272	101.349	108.741
68.250	101.505	106.513
69.243	101.653	104.307
70.250	101.793	102.142
71.272	101.928	100.005
72.309	102.057	97.853
73.360	102.177	95.678
74.427	102.289	93.507
75.510	102.397	91.332
76.608	102.496	89.143
77.723	102.583	86.960
78.853	102.667	84.795
80.000	102.752	82.652
81.164	102.832	80.506
82.344	102.900	78.347
83.542	102.967	76.194
84.757	103.040	74.055
85.990	103.115	71.941
87.241	103.190	69.854
88.510	103.265	67.768
89.797	103.338	65.656
91.103	103.407	63.527
92.428	103.469	61.403
93.773	103.524	59.318
95.137	103.576	57.266
96.520	103.620	55.188
97.924	103.649	53.088
99.349	103.669	51.059
100.794	103.707	49.077
102.260	103.754	46.996
103.747	103.792	44.882
105.256	103.819	42.814
106.787	103.839	40.768
108.340	103.852	38.714
109.916	103.862	36.649
111.515	103.868	34.578
113.137	103.871	32.530
114.783	103.871	30.517
116.452	103.868	28.512
118.146	103.855	26.498
119.865	103.827	24.495
121.608	103.795	22.515
123.377	103.769	20.547
125.171	103.749	18.581
126.992	103.722	16.617
128.839	103.674	14.662
130.713	103.605	12.714
132.615	103.533	10.766
134.543	103.468	8.828
136.500	103.410	6.899
138.486	103.355	4.974
140.500	103.294	3.058
142.544	103.227	1.140
144.617	103.155	-0.797
146.721	103.084	-2.758
148.855	103.011	-4.732
151.020	102.932	-6.633
153.217	102.860	-8.416
155.445	102.800	-10.199
157.706	102.729	-12.017
160.000	102.631	-13.824
162.327	102.515	-15.595
164.688	102.393	-17.345
167.084	102.263	-19.090
169.514	102.120	-20.805
171.980	101.956	-22.481
174.481	101.779	-24.131
177.019	101.599	-25.757
179.594	101.427	-27.343
182.206	101.268	-28.883
184.856	101.115	-30.402
187.545	100.958	-31.909
190.273	100.796	-33.411
193.041	100.630	-34.904
195.849	100.460	-36.346
198.697	100.282	-37.719
201.587	100.095	-39.087
204.520	99.902	-40.472
207.494	99.708	-41.838
210.512	99.513	-43.168
213.574	99.316	-44.454
216.681	99.122	-45.690
219.833	98.926	-46.874
223.030	98.723	-47.997
226.274	98.516	-49.064
229.565	98.310	-50.101
232.905	98.104	-51.112
236.292	97.897	-52.091
239.729	97.687	-53.040
243.216	97.477	-53.928
246.754	97.266	-54.707
250.343	97.053	-55.460
253.984	96.839	-56.302
257.678	96.626	-57.103
261.426	96.414	-57.803
265.229	96.200	-58.431
269.087	95.983	-59.001
273.001	95.766	-59.514
276.972	95.550	-59.991
281.000	95.335	-60.436
285.088	95.121	-60.830
289.234	94.912	-61.187
293.441	94.711	-61.525
297.710	94.519	-61.850
302.040	94.334	-62.167
306.433	94.151	-62.514
310.890	93.965	-62.930
315.412	93.773	-63.391
320.000	93.575	-63.861
324.655	93.369	-64.301
329.377	93.157	-64.692
334.168	92.941	-65.032
339.028	92.727	-65.325
343.959	92.518	-65.591
348.962	92.316	-65.833
354.038	92.111	-65.959
359.188	91.908	-66.014
364.412	91.713	-66.063
369.713	91.520	-66.088
375.090	91.325	-66.097
380.546	91.128	-66.076
386.081	90.932	-66.014
391.697	90.737	-65.930
397.395	90.542	-65.847
403.175	90.337	-65.812
409.039	90.127	-65.824
414.989	89.929	-65.846
421.025	89.742	-65.853
427.149	89.556	-65.831
433.362	89.367	-65.779
439.665	89.181	-65.665
446.060	89.012	-65.482
452.548	88.845	-65.321
459.131	88.654	-65.217
465.809	88.448	-65.087
472.584	88.235	-64.888
479.458	88.036	-64.619
486.432	87.860	-64.300
493.507	87.702	-63.958
500.686	87.545	-63.591
507.968	87.375	-63.172
515.357	87.201	-62.730
522.853	87.036	-62.230
530.458	86.888	-61.636
538.174	86.748	-60.986
546.002	86.597	-60.304
553.943	86.440	-59.528
562.001	86.284	-58.666
570.175	86.134	-57.823
578.469	85.991	-56.999
586.883	85.850	-56.180
595.419	85.694	-55.369
604.080	85.537	-54.542
612.866	85.393	-53.691
621.780	85.251	-52.839
630.824	85.115	-51.980
640.000	84.989	-51.116
649.309	84.869	-50.259
658.753	84.748	-49.432
668.335	84.632	-48.605
678.056	84.519	-47.786
687.919	84.392	-47.004
697.925	84.252	-46.209
708.076	84.136	-45.286
718.376	84.043	-44.296
728.825	83.963	-43.294
739.426	83.904	-42.299
750.181	83.855	-41.303
761.093	83.804	-40.292
772.163	83.748	-39.269
783.394	83.681	-38.241
794.789	83.603	-37.231
806.349	83.535	-36.331
818.078	83.484	-35.481
829.977	83.437	-34.566
842.050	83.393	-33.607
854.297	83.353	-32.612
866.724	83.324	-31.571
879.330	83.315	-30.535
892.120	83.319	-29.506
905.097	83.329	-28.488
918.262	83.333	-27.556
931.618	83.324	-26.742
945.169	83.312	-25.919
958.917	83.310	-25.148
972.864	83.321	-24.478
987.015	83.337	-23.816
1001.371	83.346	-23.141
1015.937	83.355	-22.425
1030.714	83.387	-21.608
1045.706	83.443	-20.771
1060.916	83.496	-19.949
1076.347	83.544	-19.130
1092.003	83.589	-18.335
1107.887	83.614	-17.531
1124.001	83.626	-16.745
1140.350	83.642	-16.080
1156.937	83.671	-15.436
1173.765	83.712	-14.632
1190.838	83.749	-13.734
1208.159	83.787	-12.944
1225.732	83.821	-12.308
1243.561	83.839	-11.648
1261.649	83.850	-10.910
1280.000	83.867	-10.135
1298.618	83.894	-9.352
1317.507	83.941	-8.564
1336.670	83.990	-7.714
1356.113	84.017	-6.852
1375.838	84.026	-6.118
1395.850	84.034	-5.542
1416.153	84.040	-5.139
1436.751	84.036	-4.834
1457.649	84.023	-4.498
1478.851	84.014	-4.016
1500.362	84.019	-3.333
1522.185	84.041	-2.535
1544.326	84.074	-1.562
1566.789	84.109	-0.386
1589.578	84.138	0.748
1612.699	84.155	1.608
1636.156	84.151	2.184
1659.955	84.114	2.456
1684.099	84.021	2.412
1708.595	83.848	2.287
1733.447	83.578	2.634
1758.661	83.230	4.091
1784.241	82.903	6.954
1810.193	82.755	10.872
1836.523	82.857	14.890
1863.236	83.131	18.189
1890.338	83.463	20.549
1917.833	83.788	22.154
1945.729	84.082	23.289
1974.030	84.345	24.169
2002.743	84.585	24.934
2031.873	84.809	25.627
2061.428	85.013	26.281
2091.412	85.200	27.018
2121.832	85.393	27.871
2152.695	85.594	28.831
2184.007	85.801	30.049
2215.774	86.032	31.506
2248.003	86.275	33.022
2280.701	86.520	34.572
2313.874	86.767	36.222
2347.530	87.024	37.954
2381.676	87.302	39.753
2416.318	87.587	41.712
2451.464	87.871	43.723
2487.122	88.169	45.546
2523.298	88.477	47.055
2560.000	88.778	48.190
2597.236	89.073	48.918
2635.014	89.391	49.299
2673.341	89.739	49.500
2712.226	90.108	49.591
2751.676	90.495	49.542
2791.700	90.896	49.324
2832.306	91.305	48.918
2873.503	91.719	48.302
2915.299	92.132	47.472
2957.703	92.543	46.422
3000.724	92.934	45.154
3044.370	93.302	43.850
3088.652	93.660	42.574
3133.577	93.997	41.394
3179.156	94.317	40.470
3225.398	94.629	39.616
3272.312	94.914	38.698
3319.909	95.163	37.866
3368.198	95.412	36.941
3417.190	95.670	35.756
3466.894	95.873	34.269
3517.321	96.006	32.344
3568.482	96.114	30.131
3620.387	96.211	27.918
3673.046	96.285	25.792
3726.472	96.338	23.767
3780.675	96.377	21.866
3835.666	96.414	20.100
3891.457	96.462	18.474
3948.060	96.519	17.000
4005.486	96.575	15.691
4063.747	96.625	14.540
4122.855	96.668	13.532
4182.824	96.703	12.654
4243.664	96.740	11.887
4305.390	96.789	11.208
4368.013	96.853	10.733
4431.547	96.970	10.673
4496.005	97.163	11.006
4561.401	97.412	11.783
4627.749	97.727	12.812
4695.061	98.103	13.744
4763.352	98.507	14.521
4832.637	99.002	14.987
4902.929	99.583	14.950
4974.244	100.196	14.260
5046.596	100.895	12.625
5120.000	101.653	9.708
5194.472	102.342	5.119
5270.027	102.880	-1.612
5346.682	103.146	-10.333
5424.451	103.041	-20.325
5503.352	102.574	-30.417
5583.399	101.803	-39.344
5664.612	100.802	-46.478
5747.006	99.662	-51.733
5830.598	98.489	-55.316
5915.406	97.365	-57.534
6001.447	96.327	-58.686
6088.740	95.377	-59.019
6177.303	94.501	-58.723
6267.154	93.683	-57.811
6358.312	92.931	-55.862
6450.796	92.293	-52.385
6544.625	91.776	-47.458
6639.818	91.340	-41.789
6736.397	90.967	-36.265
6834.380	90.628	-31.117
6933.789	90.397	-25.922
7034.643	90.335	-20.645
7136.964	90.353	-16.128
7240.773	90.449	-12.956
7346.093	90.693	-10.797
7452.944	91.102	-9.266
7561.350	91.697	-8.395
7671.332	92.497	-8.488
7782.915	93.503	-10.106
7896.120	94.663	-14.137
8010.971	95.798	-21.762
8127.493	96.586	-33.836
8245.711	96.692	-49.508
8365.647	95.943	-65.623
8487.328	94.421	-78.653
8610.779	92.416	-87.105
8736.026	90.257	-91.513
8863.095	88.164	-93.062
8992.011	86.223	-92.626
9122.803	84.452	-90.367
9255.497	82.890	-86.318
9390.121	81.508	-81.417
9526.704	80.193	-76.302
9665.273	79.005	-70.504
9805.857	77.944	-64.310
9948.487	76.896	-58.025
10093.191	75.926	-50.419
10240.000	75.103	-40.785
10388.944	74.373	-30.005
10540.055	73.695	-19.292
10693.363	73.004	-9.327
10848.902	72.328	0.592
11006.703	71.777	11.017
11166.799	71.286	20.582
11329.224	70.813	28.303
11494.012	70.430	34.976
11661.195	70.132	41.407
11830.812	69.897	47.849
12002.895	69.731	54.378
12177.480	69.639	60.946
12354.606	69.618	67.498
12534.309	69.668	74.027
12716.624	69.797	80.586
12901.592	70.025	87.299
13089.250	70.395	94.805
13279.637	71.052	104.320
13472.794	72.113	115.631
13668.760	73.560	126.692
13867.577	75.414	136.988
14069.285	77.614	147.025
14273.928	80.062	155.025
14481.547	82.796	158.703
14692.186	85.504	155.219
14905.889	87.598	141.150
15122.700	88.571	118.821
15342.664	88.340	97.204
15565.829	87.338	81.709
15792.239	85.959	69.167
16021.942	84.228	56.275
16254.986	82.037	44.825
16491.422	79.385	37.571
16731.295	76.446	35.170
16974.656	73.490	36.731
17221.559	70.764	41.007
17472.053	68.365	46.971
17726.189	66.284	53.936
17984.021	64.451	61.493
18245.605	62.761	69.589
18510.994	61.162	78.694
18780.242	59.629	89.855
19053.408	58.159	105.124
19330.547	56.802	125.652
19611.715	55.552	147.935
19896.975	54.588	164.104
